CW (nm)
406.9934
415.839
423.7848
431.3347
438.6569
446.0147
453.3895
460.7317
468.0984
475.3188
482.5482
489.7949
497.0587
504.5117
512.0464
519.5438
527.3053
535.0526
542.8851
550.9146
559.0203
567.2061
575.4868
583.8441
592.339
601.0144
609.9582
618.72
627.7784
636.6763
645.9638
655.4188
664.8941
674.4644
684.1373
694.1284
703.737
713.7269
723.8799
733.9552
744.1495
754.4696
764.8564
775.2735
785.6595
796.127
806.7111
817.311
827.9195
838.5272
849.21
859.9731
870.7426
881.4561
892.0809
902.8016
913.4451
923.9502
934.1121
944.6273
956.2715
967.0267
977.3654
943.3579
951.4014
959.974
969.8449
979.224
988.9179
998.9082
1008.6443
1018.5357
1029.344
1037.9878
1047.675
1057.5737
1067.7948
1078.2161
1088.761
1099.2776
1109.8894
1120.6759
1131.3048
1142.0703
1152.6501
1163.676
1174.7142
1185.5884
1196.3394
1207.2737
1217.8635
1229.1852
1240.2145
1250.9799
1262.5322
1273.4963
1284.4878
1295.4218
1306.218
1317.2566
1328.2993
1339.1294
1349.7877
1361.0531
1372.9117
1383.2798
1394.754
1405.6268
1416.5374
1427.3748
1438.4659
1449.1888
1459.3157
1469.9308
1480.8422
1491.4292
1502.0236
1512.6333
1523.2222
1533.7764
1544.2262
1554.8168
1565.3688
1575.6274
1585.8597
1596.2454
1606.4913
1616.8336
1627.021
1637.0919
1647.2316
1656.933
1667.1851
1677.3193
1687.4269
1697.2943
1707.0945
1716.8589
1726.6516
1736.4883
1746.2192
1755.833
1765.5127
1775.1178
1784.7173
1793.9531
1803.5902
1813.0514
1822.4413
1832.0272
1841.3256
1850.5543
1859.5587
1868.1732
1878.7426
1887.0811
1896.0913
1904.9347
1914.3015
1923.3857
1932.2599
1941.1107
1949.9008
1958.6244
1967.3418
1976.0129
1984.853
1993.5482
2002.1106
2010.6614
2019.3214
2027.7267
2036.2607
2044.6809
2053.0078
2061.3787
2069.7957
2077.9915
2086.3823
2094.6252
2102.8213
2111.0391
2119.2314
2127.3372
2135.5103
2143.4656
2151.3862
2159.564
2167.4849
2175.3442
2183.4202
2191.1003
2199.1353
2206.843
2214.625
2222.4263
2230.0076
2237.9041
2245.4485
2253.1104
2260.8665
2268.2883
2276.0537
2283.4934
2290.8267
2298.6094
2305.7227
2313.2007
2320.8955
2327.8242
2335.5264
2342.8228
2349.7915
2357.2937
2364.5945
2371.5522
2378.771
2386.0618
2393.0388
2400.0359
2407.6045
2414.3567
2421.2373
2428.6677
2435.5442
2442.4031
2449.1423
2456.5857
2463.0303
2469.6272
2477.0549
2483.793
2490.2192
2497.1155
